#ID:	1
#type:	Perform parallel JV
#start_time:	16/04/2025 17.35.39
#
# Parameters
#Sample area:	0.25 cm²
#Comment:	  
#Resolution of the measurement unit:	10 (higher better/slower)
#start_voltage:	-0.2 V
#stop_voltage:	1.4 V
#Scan rate:	10 mV/s
#settling_time:	10 ms
#direction:	1 0=forward,1=backward,2=for- & backward,3=back- & forward
##Sample holder climate : temperature:	[33.42,30.245] °C
##Sample holder climate : relative humidity:	[30.249,31.615] %
##IR temperature [0]:	[35.67,31.91] °C
##Stage temperature:	[35.8809,30.7062] °C
##Light intensity:	[0,0] %
#
#voltage (V),current (mA)
1.4203,-0.00014497
1.37174,-0.000408031
1.39148,-0.000201503
1.38648,-0.000179956
1.37625,-0.000510357
1.37602,-0.000318034
1.37117,-0.000416661
1.36189,-0.000477303
1.35745,-0.000329362
1.35273,-0.000395936
1.35245,-0.000280049
1.3427,-8.17941E-5
1.33799,-0.000234666
1.33312,-0.000246995
1.32353,-0.000628175
1.32263,-0.000458043
1.31858,-0.000448181
1.31366,-0.000322431
1.30388,-2.30834E-5
1.30334,-0.000434852
1.29904,-0.000535945
1.2894,-0.000375676
1.28434,-0.000421524
1.28392,-0.000493029
1.27435,-0.00018975
1.27433,-0.000258789
1.2646,-0.000452578
1.26053,-0.000526548
1.25498,-9.01225E-5
1.25016,-0.000220804
1.24563,-0.000202544
1.24066,-0.000412127
1.23108,-0.000180353
1.23098,-0.000362813
1.22586,-0.000366745
1.2165,-0.000354416
1.21604,-0.000292774
1.20644,-3.28931E-6
1.20667,-0.00027698
1.19703,-0.000183284
1.19682,-0.000516151
1.18695,-0.000251323
1.18212,-0.000372142
1.17715,-0.000337622
1.17694,-0.00051022
1.16795,-0.000329225
1.15806,-0.00045744
1.15829,-0.000459906
1.15342,-0.000422921
1.14843,-0.000461372
1.13849,-0.000333156
1.13869,-0.00058219
1.1338,-0.000207407
1.124,-0.00029024
1.12418,-0.000494891
1.11479,-0.000393798
1.10985,-0.000674886
1.10963,-0.000406127
1.09984,-0.000148696
1.0946,-0.000274446
1.08975,-8.21225E-5
1.08521,6.68184E-5
1.08042,-0.000342485
1.07513,-0.000300568
1.07067,-0.000224132
1.06556,-0.000104779
1.0608,-0.000289705
1.05124,-0.00016149
1.05117,-0.000339019
1.04148,-4.21373E-5
1.04146,-0.000150627
1.03181,-0.000347882
1.03185,-8.15882E-5
1.02228,-0.000398661
1.01752,-0.000184147
1.01291,-0.000230995
1.0077,-0.000138765
1.00313,-0.000291637
0.998014,-0.00019301
0.993293,-0.000308897
0.988294,-6.87255E-5
0.983409,-0.00012297
0.973794,-8.10539E-5
0.973952,-7.85882E-5
0.96477,-6.77255E-5
0.964538,-0.000195941
0.954702,-0.000260049
0.94966,-0.000242789
0.944775,-0.000231926
0.945082,-0.000148093
0.935484,-0.0002985
0.930842,-0.00040699
0.925566,-0.000341882
0.916053,-0.000186544
0.915782,-0.000381333
0.91142,-0.000339416
0.905819,-0.00037047
0.896264,0.00017198
0.896194,-5.54909E-6
0.891567,-0.000294034
0.882258,2.99705E-5
0.882374,-0.000157421
0.872709,-0.000157421
0.867516,3.59018E-5
0.867099,-0.000336416
0.857415,-0.000176147
0.853151,-0.000311759
0.847912,1.71764E-5
0.843181,-0.000187475
0.838727,-0.000160353
0.83282,-0.000323088
0.828085,-0.000161818
0.818453,-0.000154421
0.818158,-8.7848E-5
0.813895,-0.000127299
0.80922,8.82155E-5
0.798565,-0.000111505
0.798371,0.000127666
0.794443,0.000130132
0.784455,-0.00016475
0.779717,-5.13284E-5
0.779635,3.99018E-5
0.769714,-0.000315156
0.76505,-4.04657E-5
0.760137,-0.000269774
0.760254,1.6245E-5
0.750298,-0.000316622
0.741121,-0.000310691
0.740871,8.13527E-5
0.735998,-0.000113436
0.730748,-0.000135627
0.725934,4.29018E-5
0.716216,-0.00025298
0.716668,-0.000366401
0.711791,7.98871E-5
0.702177,-0.000141024
0.702047,-0.000227323
0.692278,-0.000197735
0.687066,-0.000164681
0.68242,-7.09852E-5
0.681955,9.91468E-5
0.671968,-0.000115368
0.667698,-0.00021546
0.662592,-2.5603E-5
0.657901,-0.000173544
0.65353,-0.000171078
0.648495,-0.000377195
0.643381,-0.000199666
0.63841,-0.000305691
0.633981,-0.000273637
0.624275,-0.000250446
0.624496,-4.33284E-5
0.615098,4.05048E-5
0.614944,0.000183514
0.60436,-8.4245E-5
0.604638,-0.000237117
0.594785,-8.4245E-5
0.590446,-0.000177941
0.585224,7.2093E-5
0.585243,-2.9E-5
0.575945,-1.91373E-5
0.56618,-0.000296759
0.566207,-0.000232652
0.56125,0.000198843
0.55652,9.03527E-5
0.550923,-0.00022772
0.546649,-0.000184804
0.537393,-0.000414112
0.536882,-9.85048E-5
0.52767,-0.000420509
0.527618,-7.53136E-5
0.517725,-0.000223255
0.517895,0.000168789
0.508176,0.000159926
0.503777,-0.000111299
0.499089,-0.000140887
0.494335,-0.000404715
0.489418,-0.000348004
0.483738,-0.000216323
0.478658,-0.000263171
0.469394,-0.000477685
0.469015,-0.000390387
0.464694,-0.000109299
0.459746,2.63136E-5
0.450549,0.000164392
0.450933,0.000122475
0.440342,-0.000150215
0.436199,-0.000152681
0.431186,-5.40539E-5
0.426633,-8.01764E-5
0.421637,-9.00391E-5
0.416989,-0.000200995
0.411842,4.55734E-5
0.407028,-0.000155613
0.402631,-0.000199995
0.393087,-2.24657E-5
0.393007,-0.000108765
0.383266,-0.000203926
0.383469,-7.57107E-5
0.373762,-0.000120093
0.369014,-9.19705E-5
0.363427,0.000149666
0.363371,-0.000148681
0.353957,-0.000207858
0.348951,2.73823E-5
0.344073,-0.000243843
0.339634,4.71077E-5
0.334803,-4.65882E-5
0.32547,6.53675E-5
0.325484,0.00010975
0.320273,-5.79166E-5
0.310502,5.55048E-5
0.310891,-0.000230514
0.301375,-0.000111162
0.296503,-0.000182666
0.296506,2.69166E-5
0.28664,-5.59166E-5
0.281854,0.000163529
0.276758,5.01077E-5
0.27206,3.53136E-5
0.267475,0.000144804
0.262693,-4.50539E-5
0.258039,-0.000269431
0.248162,0.000155666
0.248443,0.000190186
0.243748,0.000106353
0.23896,-0.000115559
0.229216,-0.000200858
0.224657,-1.34657E-5
0.219597,-0.000104696
0.220154,-0.000158941
0.209157,2.20539E-5
0.204283,5.16421E-5
0.198752,7.62989E-5
0.198509,-3.95882E-5
0.188842,8.46959E-5
0.183532,0.000121681
0.178577,-0.000144613
0.178246,-0.000171735
0.168285,0.000115284
0.163403,4.37793E-5
0.158143,3.8848E-5
0.153414,-6.2245E-5
0.148012,0.00017546
0.148129,-0.000236308
0.138162,0.000239568
0.127869,0.000361387
0.132831,0.000116284
0.122718,-1.58627E-5
0.117494,0.000149338
0.112874,-4.05195E-5
0.107812,-0.000199789
0.10237,0.000113353
0.0975882,0.000150338
0.0925427,-0.000108559
0.0872051,0.000200652
0.081769,-3.60539E-5
0.0765947,-3.60539E-5
0.0718655,1.32598E-5
0.0666398,9.56273E-5
0.0617962,-3.99852E-5
0.0567948,0.00014001
0.0512255,-9.66959E-5
0.0467446,3.25195E-5
0.0415974,-0.000354593
0.0364167,0.000108956
0.0263926,-0.00021798
0.0264576,-7.00391E-5
0.0214287,4.09166E-5
0.0165069,-7.74361E-5
0.00636671,-3.94509E-5
0.00594006,9.86273E-6
0.000805351,0.000106024
-0.00407222,0.000295882
-0.0143661,2.56568E-5
-0.0142663,6.26421E-5
-0.0247657,-9.02302E-5
-0.024535,8.97645E-5
-0.0295863,-7.05048E-5
-0.0343765,-0.000301279
-0.044596,5.37793E-5
-0.0446814,-1.52598E-5
-0.0544976,7.20391E-5
-0.0539501,-1.42598E-5
-0.0650945,-3.15195E-5
-0.0646845,1.0397E-5
-0.0753575,9.76959E-5
-0.075532,9.27646E-5
-0.0853308,0.00012975
-0.085291,-6.75048E-5
-0.0948265,-4.9245E-5
-0.0997867,-3.93823E-5
-0.100291,0.0002565
-0.110157,0.000249103
-0.115273,-6.32841E-6
-0.115207,-0.000317004
-0.124576,-0.000117284
-0.129162,-0.000109887
-0.133364,0.0002585
-0.138497,-0.000113818
-0.143003,-0.000234637
-0.153226,-0.000154735
-0.153159,-0.000162132
-0.157862,4.99166E-5
-0.16768,-0.000265691
-0.166929,-6.35048E-5
-0.177028,-0.00011675
-0.181926,-9.45586E-5
-0.186807,-3.32841E-6
-0.191517,3.46568E-5
-0.191396,0.000116024
-0.20091,1.37272E-7
NaN,NaN
