#ID:	1
#type:	Perform parallel JV
#start_time:	16/04/2025 17.35.39
#
# Parameters
#Sample area:	0.25 cm²
#Comment:	  
#Resolution of the measurement unit:	10 (higher better/slower)
#start_voltage:	-0.2 V
#stop_voltage:	1.4 V
#Scan rate:	10 mV/s
#settling_time:	10 ms
#direction:	1 0=forward,1=backward,2=for- & backward,3=back- & forward
##Sample holder climate : temperature:	[33.42,30.245] °C
##Sample holder climate : relative humidity:	[30.249,31.615] %
##IR temperature [0]:	[35.67,31.91] °C
##Stage temperature:	[35.8809,30.7062] °C
##Light intensity:	[0,0] %
#
#voltage (V),current (mA)
1.40869,-0.000230269
1.37948,-1.19375E-6
1.3892,-0.000360772
1.38442,-0.000488166
1.37939,-0.000350088
1.37489,-0.000231735
1.37002,-0.00050296
1.3649,-0.000366348
1.35541,-0.000119779
1.35525,-0.000260323
1.35017,-0.000156765
1.34016,-0.000205078
1.34055,-0.000259323
1.33059,-0.000320965
1.33063,-0.000333294
1.32121,-0.000260789
1.316,-0.000472838
1.31092,-0.0004827
1.30623,-0.000343622
1.30667,-0.000545808
1.29659,-0.000622244
1.28723,-0.000522617
1.28701,-0.000261255
1.28211,-0.000493029
1.27728,-0.000362348
1.26725,-0.000356416
1.26719,-0.000489563
1.2625,-0.00027998
1.25304,-0.000287377
1.25293,-0.000270117
1.24295,4.40243E-5
1.23797,-0.000560068
1.238,-0.000143368
1.22839,-0.000596053
1.2234,-9.55195E-5
1.21864,-0.0004777
1.21891,-0.000502357
1.20904,-0.000237529
1.19871,-0.000387936
1.19874,-0.000343553
1.1941,-0.000417524
1.18912,-9.10539E-5
1.18427,-0.000236529
1.17926,-0.000411593
1.16979,-0.000165024
1.16995,-0.000354882
1.16017,-0.000297171
1.16026,-0.000373607
1.15052,-0.000361279
1.15016,-0.000191147
1.14088,-0.000468769
1.13611,-0.000261652
1.13135,-0.000170421
1.12635,-0.000327225
1.12153,-0.000371607
1.11677,-0.000233529
1.11211,-0.000428318
1.10754,-0.000368142
1.09803,-0.000333622
1.09776,-0.000311431
1.08818,-0.000118108
1.08808,-8.11225E-5
1.07865,-0.000367142
1.07371,-0.000325225
1.07393,-0.000298103
1.06456,-0.000154093
1.05951,-1.84805E-5
1.05496,-0.00016149
1.05002,-0.000166421
1.04556,-0.000350348
1.03628,-0.000236926
1.03602,-0.00036021
1.02656,-0.000191544
1.02648,-0.000263049
1.01705,-0.000282774
1.01228,-0.000157024
1.00748,-0.000323691
1.00255,-0.000242323
0.997924,-0.000119039
0.992945,-0.000296568
0.98822,1.75734E-5
0.983737,-0.000159956
0.974141,5.245E-6
0.97436,-0.000436112
0.964867,-0.000351279
0.960089,-0.000134299
0.959892,-0.000383333
0.95057,-0.000304431
0.945518,-0.000219598
0.941166,-0.000283705
0.936561,-0.000175215
0.931799,-0.000185078
0.922428,-0.000415852
0.921887,-0.000198872
0.912854,-0.000430646
0.913087,-6.54909E-6
0.90348,-9.9245E-5
0.903424,-9.9245E-5
0.893774,-0.000252117
0.888953,-0.000305362
0.884454,-0.000216598
0.879514,-0.00016975
0.875166,-2.18089E-5
0.865415,-0.000124368
0.864986,-0.000200804
0.860073,-0.000250117
0.85006,-0.000447372
0.850259,-0.000329019
0.845212,-6.41911E-5
0.835442,-0.000172681
0.835488,-0.000187475
0.825905,-2.62059E-5
0.820889,-0.000191407
0.821208,-3.85343E-5
0.811242,-0.000213598
0.806631,1.91659E-6
0.801166,-0.00022246
0.796449,-0.000106573
0.79158,1.91764E-5
0.786865,-0.000337348
0.782021,-0.000125299
0.776881,-4.6397E-5
0.772487,-0.000204201
0.767403,-8.97793E-5
0.757687,-0.00038073
0.757749,-0.000131696
0.747856,-0.000364936
0.747989,-0.000212063
0.738176,-0.000276171
0.737825,-8.87793E-5
0.728156,-0.000208598
0.723351,-0.000215995
0.718492,-0.00017901
0.718714,-0.00021846
0.70888,-0.000276637
0.704086,-0.00017801
0.699176,-0.000239652
0.694074,-0.000210063
0.689541,-0.000449235
0.679592,-0.000403852
0.679613,-0.000258377
0.674624,-0.000189338
0.669591,0.000141063
0.659839,-1.32745E-5
0.659939,-1.32745E-5
0.654935,-7.24509E-5
0.645383,-0.000315553
0.645119,-8.87107E-5
0.635607,3.95048E-5
0.630898,-0.000150353
0.630491,-0.000325416
0.620679,-3.1E-5
0.620895,-3.34657E-5
0.610941,-6.30539E-5
0.605932,-7.19166E-5
0.601105,7.1093E-5
0.596276,-2.2603E-5
0.591388,-4.23284E-5
0.586326,-0.000100505
0.581124,6.96273E-5
0.57649,7.949E-5
0.571535,-0.000100505
0.562062,-0.000207995
0.561676,-0.000343607
0.557149,-4.52598E-5
0.552413,-0.000104436
0.542251,-0.000110833
0.54226,-4.42598E-5
0.532804,-6.15196E-5
0.532695,-2.7E-5
0.523037,-0.000149284
0.518469,-0.000149284
0.514172,-0.00015175
0.514086,-0.000235583
0.504416,2.43136E-5
0.494747,-0.000239514
0.494791,-0.000195132
0.489833,4.65048E-5
0.485117,-0.000290294
0.475346,-0.000263171
0.475374,-0.000157147
0.465898,-0.000119162
0.466205,-0.00025724
0.456393,-0.000146284
0.452016,-0.000193132
0.447277,-0.000209392
0.442411,-0.000150215
0.437513,1.99166E-5
0.433032,0.000130872
0.428115,8.0093E-5
0.418546,-0.000262637
0.418447,4.55734E-5
0.409276,-7.67107E-5
0.409322,5.39705E-5
0.399731,8.35586E-5
0.399698,-5.94509E-5
0.390353,-0.000306019
0.385373,-8.0642E-5
0.380635,-1.40686E-5
0.371333,-7.07793E-5
0.37139,-0.000203926
0.366678,-1.0603E-5
0.361759,-0.000284294
0.352481,-0.000244843
0.347562,-8.35734E-5
0.347554,-4.65882E-5
0.338048,0.000195049
0.333329,-4.65882E-5
0.328807,-9.49018E-5
0.324067,-0.000161475
0.319442,-0.000218186
0.314313,-0.00021572
0.305225,-0.000328142
0.305195,-0.0004317
0.295999,-0.000108696
0.295491,-0.000256637
0.286548,0.000116681
0.281693,-0.00030495
0.277021,-0.000369058
0.277046,1.06568E-5
0.267233,-7.71077E-5
0.258017,-8.06864E-6
0.257817,-0.000294088
0.253192,-0.00010423
0.248463,-0.00015501
0.238718,4.47107E-5
0.238781,3.23823E-5
0.228377,4.57107E-5
0.22832,-1.34657E-5
0.217966,-0.00022798
0.218018,-0.000146613
0.207944,9.72546E-6
0.207814,0.000113284
0.197855,-9.62989E-5
0.197859,5.90391E-5
0.187791,-0.000124887
0.187972,-6.3245E-5
0.177578,-0.000206255
0.17793,6.25048E-5
0.167713,5.36421E-5
0.162403,-5.53432E-6
0.157391,-7.21077E-5
0.157157,8.56959E-5
0.147176,3.9848E-5
0.142713,4.7245E-5
0.137306,5.32841E-6
0.137593,-9.46568E-6
0.127518,6.79705E-5
0.122155,0.000181392
0.117031,0.000173995
0.116863,-5.2848E-5
0.10677,-0.00018746
0.10194,0.000174995
0.0966972,-2.22598E-5
0.091989,-7.15734E-5
0.0868099,-8.29018E-5
0.0818677,-6.07107E-5
0.0766798,-1.1397E-5
0.0716475,-0.000134681
0.066486,-8.92989E-5
0.0665011,-0.00023724
0.0563229,-5.7245E-5
0.0464861,6.45734E-5
0.0465964,0.000205117
0.0415672,-2.17255E-5
0.0361263,-0.00023624
0.0311028,2.93136E-6
0.026231,-0.000193323
0.0211173,-0.000242637
0.0159385,-6.51077E-5
0.0059256,-0.000187392
0.00581535,0.000120818
0.000515744,4.43823E-5
-0.00440729,0.000172598
-0.0147216,0.000346195
-0.0147642,-1.13284E-5
-0.0196749,8.23675E-5
-0.0246691,-8.28332E-5
-0.0348256,9.07646E-5
-0.0347321,3.15882E-5
-0.0451443,-9.41616E-5
-0.0447364,-0.000311142
-0.0501645,-1.52598E-5
-0.0604972,0.000121353
-0.0603536,3.01225E-5
-0.0654593,0.000367921
-0.0754707,1.1397E-5
-0.0753627,-0.000153804
-0.0855997,0.000240705
-0.0858458,-5.51764E-5
-0.0955653,0.00014801
-0.0957406,-0.000224308
-0.104967,0.000145544
-0.105232,5.1848E-5
-0.113983,1.83284E-5
-0.119412,5.2848E-5
-0.123809,0.000301882
-0.128903,-0.000109887
-0.133723,-7.43675E-5
-0.138291,8.34361E-5
-0.143528,-7.43675E-5
-0.153124,-0.000130078
-0.152863,-0.000112818
-0.157581,2.52598E-5
-0.167485,-6.79409E-6
-0.167219,-0.000186789
-0.176918,-1.81225E-5
-0.181752,0.000164338
-0.186546,0.000169269
-0.191269,-2.32841E-6
-0.191248,0.000165338
-0.200746,0.000123421
NaN,NaN
