#ID:	3
#type:	Perform parallel JV
#start_time:	16/04/2025 17.46.09
#
# Parameters
#Sample area:	0.25 cm²
#Comment:	  
#Resolution of the measurement unit:	10 (higher better/slower)
#start_voltage:	-0.2 V
#stop_voltage:	1.4 V
#Scan rate:	10 mV/s
#settling_time:	10 ms
#direction:	1 0=forward,1=backward,2=for- & backward,3=back- & forward
##Sample holder climate : temperature:	[32.808,29.964] °C
##Sample holder climate : relative humidity:	[30.803,32.155] %
##IR temperature [0]:	[34.89,31.53] °C
##Stage temperature:	[33.9076,30.2538] °C
##Light intensity:	[0,0] %
#
#voltage (V),current (mA)
1.08127,50.0082
1.08008,50.017
1.07925,50.0255
1.07867,50.0334
1.07826,50.0391
1.07789,50.0423
1.07758,50.043
1.0774,50.0459
1.07721,50.0492
1.07705,50.0501
1.07691,50.0509
1.07676,50.0486
1.07669,50.0548
1.07657,50.0516
1.07647,50.0539
1.07639,50.054
1.07636,50.0523
1.07628,50.0556
1.07622,50.0592
1.07612,50.0575
1.0761,50.0599
1.07599,50.0585
1.07594,50.0606
1.07587,50.059
1.07584,50.0577
1.07579,50.0567
1.07575,50.0601
1.07567,50.0615
1.07567,50.0611
1.07563,50.062
1.07557,50.0575
1.07551,50.0562
1.07551,50.0583
1.07546,50.0588
1.07545,50.0588
1.0754,50.0599
1.07537,50.0602
1.07532,50.0601
1.07532,50.0592
1.07527,50.0581
1.0752,50.06
1.0752,50.0579
1.07521,50.0575
1.07514,50.0591
1.07514,50.0588
1.0751,50.0601
1.07509,50.06
1.07507,50.0582
1.07503,50.0575
1.07503,50.061
1.07497,50.0592
1.07501,50.0626
1.07495,50.0631
1.07495,50.0589
1.0749,50.0576
1.0749,50.0604
1.07489,50.0602
1.07484,50.0602
1.07485,50.0576
1.07481,50.0584
1.07476,50.056
1.0748,50.0582
1.07473,50.0567
1.07474,50.0572
1.07458,50.0121
1.07422,49.9218
1.0737,49.7847
1.073,49.599
1.07211,49.3696
1.07126,49.1498
1.0701,48.834
1.06891,48.5169
1.06736,48.1141
1.06586,47.7113
1.06431,47.3095
1.06241,46.8158
1.06052,46.3185
1.05859,45.8262
1.05632,45.2475
1.05027,43.717
1.04442,42.2501
1.03828,40.729
1.03199,39.2083
1.0256,37.6891
1.01952,36.2682
1.01309,34.8024
1.00651,33.3207
0.999828,31.8844
0.993284,30.4911
0.986514,29.0997
0.979325,27.6646
0.972349,26.3142
0.965225,24.9745
0.957872,23.6474
0.950188,22.304
0.942416,21.0099
0.934766,19.7794
0.926789,18.5605
0.91851,17.3549
0.909693,16.1286
0.900686,14.9527
0.891964,13.8754
0.883084,12.8494
0.873604,11.8157
0.863859,10.8352
0.859092,10.3665
0.85842,10.2798
0.857734,10.1937
0.856958,10.1068
0.855236,9.93626
0.852903,9.72107
0.850573,9.50884
0.847701,9.25855
0.844833,9.0103
0.841793,8.76029
0.837623,8.42933
0.833902,8.14173
0.830039,7.85648
0.825546,7.53076
0.820847,7.20613
0.815862,6.87829
0.810536,6.54419
0.805049,6.21559
0.799287,5.88924
0.793253,5.56527
0.786915,5.24278
0.780121,4.92344
0.774059,4.64694
0.767588,4.37156
0.761955,4.1454
0.755053,3.886
0.748875,3.6653
0.742433,3.44773
0.735595,3.23353
0.729694,3.05546
0.722233,2.84854
0.717165,2.71154
0.710598,2.54436
0.703622,2.37821
0.69783,2.2492
0.691815,2.12068
0.685444,1.99267
0.678872,1.86542
0.673791,1.77056
0.668738,1.68254
0.661574,1.56435
0.657916,1.50617
0.65036,1.39168
0.644517,1.30769
0.640468,1.25056
0.634336,1.17046
0.627976,1.09069
0.623713,1.0393
0.616907,0.960777
0.612494,0.912102
0.605504,0.840624
0.600681,0.791587
0.595637,0.745621
0.590755,0.700233
0.582823,0.634548
0.580344,0.612574
0.574931,0.570539
0.56651,0.509871
0.563501,0.489416
0.557784,0.451234
0.551702,0.413639
0.548704,0.396521
0.542436,0.36158
0.536349,0.330161
0.529905,0.299822
0.526526,0.283992
0.519768,0.256407
0.516299,0.242408
0.509589,0.218102
0.502486,0.193291
0.498587,0.181679
0.494776,0.169852
0.487236,0.149876
0.48344,0.141084
0.479493,0.131067
0.4716,0.11488
0.467528,0.106269
0.463363,0.098853
0.455384,0.0854461
0.450876,0.079179
0.446954,0.0733099
0.442286,0.0675852
0.438375,0.062435
0.4294,0.0532587
0.425308,0.0491745
0.42125,0.0454789
0.412033,0.0379816
0.412161,0.0384549
0.403346,0.0319818
0.403514,0.0320557
0.394199,0.0269523
0.385051,0.0222444
0.384794,0.0222148
0.380672,0.0203633
0.375791,0.0184698
0.366945,0.0154261
0.362194,0.013688
0.357103,0.0126969
0.35703,0.0123073
0.347997,0.01023
0.338107,0.00811713
0.338378,0.00860282
0.333709,0.00767337
0.328931,0.00689037
0.31912,0.0055022
0.319147,0.00530741
0.309756,0.00438031
0.309797,0.004151
0.300241,0.00337038
0.295575,0.00312381
0.290915,0.00243342
0.284896,0.00210402
0.285111,0.00214347
0.275455,0.0017317
0.270234,0.00145308
0.265342,0.00128395
0.260828,0.00104478
0.255537,0.00104724
0.2501,0.00062068
0.250501,0.000667528
0.23551,0.000431823
0.235412,0.000402235
0.230886,9.40243E-5
0.225562,0.00044022
0.220815,0.000489533
0.21082,-2.57941E-5
0.210966,0.000270088
0.206112,4.17793E-5
0.201198,4.17793E-5
0.191514,0.00022424
0.191242,-0.00022698
0.181288,-2.13284E-5
0.176488,-7.31077E-5
0.171689,0.000230171
0.171451,-0.000188995
0.161567,-1.29314E-5
0.156649,0.000144872
0.151553,-8.93675E-5
0.146464,2.86273E-6
0.141893,5.46421E-5
0.13702,-0.000152475
0.131844,-0.00018946
0.126737,7.04361E-5
0.121877,-6.27107E-5
0.116648,0.000124681
0.111776,4.57793E-5
0.101717,9.85586E-5
0.101942,0.000147872
0.0969854,4.86273E-6
0.0918537,0.000204583
0.0821761,0.000106956
0.0823694,7.24361E-5
0.0721646,0.000114353
0.0723927,0.000151338
0.0622409,0.000194255
0.0622211,-4.73823E-5
0.0521887,-0.000173132
0.0521692,9.06959E-5
0.0423647,-0.000177063
0.0374143,-5.13136E-5
0.0325356,4.97793E-5
0.0275373,-1.82598E-5
0.0225627,0.000151872
0.0229112,8.28332E-5
0.0128319,-5.93136E-6
0.00256891,0.000197255
0.00245442,9.86273E-5
-0.00221161,3.69852E-5
-0.0069204,-0.000194789
-0.0119011,0.000163735
-0.0168594,-0.00023324
-0.0268636,-3.10539E-5
-0.0272265,9.46959E-5
-0.0324121,-0.000271691
-0.0380224,0.000154872
-0.0478211,0.000275691
-0.047598,9.39705E-6
-0.0522931,7.93136E-6
-0.062082,0.000153407
-0.0618102,-0.000253431
-0.0720121,-9.46273E-5
-0.076867,6.81077E-5
-0.0769413,0.000265362
-0.0863648,0.000285088
-0.0910749,0.000224446
-0.0959053,0.000182529
-0.100749,5.67793E-5
-0.105765,9.86959E-5
-0.110914,-6.30391E-5
-0.115744,0.000203255
-0.12018,0.000166269
-0.125127,-3.34509E-5
-0.13536,-9.16273E-5
-0.135063,2.42598E-5
-0.145099,-8.17646E-5
-0.144908,-7.79409E-6
-0.154774,-0.000171995
-0.15524,-4.37793E-5
-0.16451,0.000138681
-0.1695,-0.000184323
-0.169299,3.75882E-5
-0.179266,0.000314745
-0.184133,-2.55195E-5
-0.18902,0.000524328
-0.194038,0.000259034
-0.198761,6.67107E-5
-0.203536,8.64361E-5
NaN,NaN
